VAMAS Surface Chemical Analysis Standard Data Transfer Format 1988 May 4
Specs
PHOIBOS HSA3500 150 R6[HWType 30:14] MCD-9
Anna
?
4
Casa Info Follows
0
Created by SpecsLab2, Version 2.72-r21963
SourceAnalyserAngle: Not Specified
NORM
REGULAR
18
4
Cycle
d
zValue
d
Step
d
Timestamp [ms]
d
0
0
0
0
18
02-Pd
Pd-AlOx
2015
12
2
17
21
37
0
13
Casa Info Follows
0
0
0
0
File = F:\Anna-Lenovo\2015\XPS-analysis\Pd-AlOx\02-12-15\02-12-15-AK-60-asis-01-bis.xml
Group = Pd-AlOx
First of group = 1
Analyzer lens = MediumArea
Analyzer slit = 5:7x20\2:open
Scan mode = FixedAnalyzerTransmission
Kinetic energy start = 897.6
Kinetic energy base = 0
XPS
1
0
0
0
Mg
1253.6
0
0
0
0
0
FAT
20
1
4.61
0
0
0
0
0
02-Pd

-1
kinetic energy
eV
897.6
0.1
2
counts
d
Transmission
d
pulse counting
0.5
1
0
0
0
0
0
482
2209
2762
2.95367
2.9931
2504
2.9931
2390
2.99294
2551
2.99277
2483
2.9926
2510
2.99243
2540
2.99227
2570
2.9921
2449
2.99193
2454
2.99176
2541
2.9916
2467
2.99143
2455
2.99126
2503
2.99109
2399
2.99093
2476
2.99076
2447
2.99059
2492
2.99043
2447
2.99026
2468
2.99009
2533
2.98992
2465
2.98976
2469
2.98959
2461
2.98942
2417
2.98926
2425
2.98909
2533
2.98892
2443
2.98876
2448
2.98859
2512
2.98842
2470
2.98825
2472
2.98809
2414
2.98792
2452
2.98775
2509
2.98759
2484
2.98742
2491
2.98725
2513
2.98709
2495
2.98692
2487
2.98676
2452
2.98659
2545
2.98642
2537
2.98626
2424
2.98609
2569
2.98592
2447
2.98576
2529
2.98559
2469
2.98542
2507
2.98526
2526
2.98509
2388
2.98493
2468
2.98476
2568
2.98459
2494
2.98443
2505
2.98426
2521
2.98409
2484
2.98393
2470
2.98376
2477
2.9836
2542
2.98343
2535
2.98326
2420
2.9831
2519
2.98293
2486
2.98277
2379
2.9826
2480
2.98243
2605
2.98227
2608
2.9821
2529
2.98194
2566
2.98177
2496
2.98161
2505
2.98144
2573
2.98127
2588
2.98111
2521
2.98094
2625
2.98078
2521
2.98061
2593
2.98045
2511
2.98028
2560
2.98012
2544
2.97995
2590
2.97979
2631
2.97962
2551
2.97945
2599
2.97929
2657
2.97912
2642
2.97896
2603
2.97879
2592
2.97863
2555
2.97846
2625
2.9783
2604
2.97813
2578
2.97797
2615
2.9778
2485
2.97764
2643
2.97747
2489
2.97731
2575
2.97714
2579
2.97698
2454
2.97681
2504
2.97665
2581
2.97648
2477
2.97632
2400
2.97615
2634
2.97599
2530
2.97582
2498
2.97566
2390
2.9755
2462
2.97533
2446
2.97517
2519
2.975
2506
2.97484
2460
2.97467
2503
2.97451
2432
2.97434
2489
2.97418
2603
2.97401
2508
2.97385
2478
2.97369
2578
2.97352
2537
2.97336
2511
2.97319
2494
2.97303
2533
2.97286
2564
2.9727
2582
2.97254
2578
2.97237
2708
2.97221
2499
2.97204
2603
2.97188
2703
2.97172
2568
2.97155
2649
2.97139
2629
2.97122
2704
2.97106
2707
2.9709
2747
2.97073
2561
2.97057
2762
2.9704
2637
2.97024
2709
2.97008
2697
2.96991
2746
2.96975
2610
2.96959
2644
2.96942
2620
2.96926
2609
2.96909
2640
2.96893
2559
2.96877
2529
2.9686
2565
2.96844
2579
2.96828
2529
2.96811
2576
2.96795
2477
2.96779
2561
2.96762
2531
2.96746
2468
2.9673
2379
2.96713
2462
2.96697
2433
2.96681
2375
2.96664
2479
2.96648
2484
2.96632
2324
2.96615
2362
2.96599
2420
2.96583
2383
2.96567
2409
2.9655
2461
2.96534
2457
2.96518
2463
2.96501
2337
2.96485
2422
2.96469
2245
2.96452
2357
2.96436
2345
2.9642
2350
2.96404
2362
2.96387
2363
2.96371
2354
2.96355
2326
2.96339
2209
2.96322
2340
2.96306
2436
2.9629
2341
2.96274
2328
2.96257
2273
2.96241
2478
2.96225
2469
2.96209
2353
2.96192
2271
2.96176
2251
2.9616
2382
2.96144
2368
2.96127
2231
2.96111
2303
2.96095
2328
2.96079
2371
2.96062
2293
2.96046
2315
2.9603
2345
2.96014
2422
2.95998
2392
2.95981
2435
2.95965
2274
2.95949
2326
2.95933
2297
2.95917
2292
2.959
2368
2.95884
2289
2.95868
2359
2.95852
2364
2.95836
2357
2.95819
2496
2.95803
2430
2.95787
2372
2.95771
2345
2.95755
2362
2.95739
2390
2.95722
2298
2.95706
2325
2.9569
2356
2.95674
2290
2.95658
2303
2.95642
2406
2.95626
2325
2.95609
2361
2.95593
2438
2.95577
2346
2.95561
2325
2.95545
2338
2.95529
2363
2.95513
2393
2.95496
2365
2.9548
2427
2.95464
2376
2.95448
2281
2.95432
2328
2.95416
2396
2.954
2316
2.95384
2403
2.95367
02-Pd
Pd-AlOx
2015
12
2
17
23
57
0
13
Casa Info Follows
0
0
0
0
File = F:\Anna-Lenovo\2015\XPS-analysis\Pd-AlOx\02-12-15\02-12-15-AK-60-asis-01-bis.xml
Group = Pd-AlOx
First of group = 0
Analyzer lens = MediumArea
Analyzer slit = 5:7x20\2:open
Scan mode = FixedAnalyzerTransmission
Kinetic energy start = 897.6
Kinetic energy base = 0
XPS
1
0
0
0
Mg
1253.6
0
0
0
0
0
FAT
20
1
4.61
0
0
0
0
0
02-Pd

-1
kinetic energy
eV
897.6
0.1
2
counts
d
Transmission
d
pulse counting
0.5
1
0
0
0
0
0
482
2245
2754
2.95367
2.9931
2580
2.9931
2526
2.99294
2505
2.99277
2509
2.9926
2477
2.99243
2491
2.99227
2381
2.9921
2489
2.99193
2486
2.99176
2454
2.9916
2432
2.99143
2564
2.99126
2558
2.99109
2520
2.99093
2481
2.99076
2426
2.99059
2384
2.99043
2498
2.99026
2528
2.99009
2445
2.98992
2456
2.98976
2519
2.98959
2508
2.98942
2443
2.98926
2572
2.98909
2402
2.98892
2454
2.98876
2352
2.98859
2410
2.98842
2514
2.98825
2493
2.98809
2502
2.98792
2416
2.98775
2498
2.98759
2460
2.98742
2471
2.98725
2469
2.98709
2481
2.98692
2458
2.98676
2505
2.98659
2464
2.98642
2443
2.98626
2518
2.98609
2509
2.98592
2529
2.98576
2527
2.98559
2487
2.98542
2499
2.98526
2508
2.98509
2455
2.98493
2496
2.98476
2547
2.98459
2491
2.98443
2543
2.98426
2474
2.98409
2488
2.98393
2465
2.98376
2542
2.9836
2587
2.98343
2399
2.98326
2575
2.9831
2455
2.98293
2557
2.98277
2496
2.9826
2478
2.98243
2556
2.98227
2500
2.9821
2572
2.98194
2456
2.98177
2597
2.98161
2530
2.98144
2614
2.98127
2509
2.98111
2673
2.98094
2583
2.98078
2609
2.98061
2552
2.98045
2555
2.98028
2607
2.98012
2604
2.97995
2541
2.97979
2634
2.97962
2595
2.97945
2519
2.97929
2701
2.97912
2589
2.97896
2568
2.97879
2571
2.97863
2680
2.97846
2616
2.9783
2576
2.97813
2615
2.97797
2591
2.9778
2485
2.97764
2593
2.97747
2491
2.97731
2546
2.97714
2593
2.97698
2509
2.97681
2542
2.97665
2524
2.97648
2459
2.97632
2530
2.97615
2486
2.97599
2419
2.97582
2460
2.97566
2546
2.9755
2486
2.97533
2577
2.97517
2473
2.975
2481
2.97484
2602
2.97467
2418
2.97451
2512
2.97434
2459
2.97418
2506
2.97401
2485
2.97385
2537
2.97369
2481
2.97352
2532
2.97336
2637
2.97319
2545
2.97303
2580
2.97286
2627
2.9727
2531
2.97254
2576
2.97237
2639
2.97221
2655
2.97204
2538
2.97188
2587
2.97172
2539
2.97155
2670
2.97139
2657
2.97122
2552
2.97106
2645
2.9709
2626
2.97073
2670
2.97057
2673
2.9704
2674
2.97024
2656
2.97008
2654
2.96991
2658
2.96975
2754
2.96959
2679
2.96942
2721
2.96926
2618
2.96909
2607
2.96893
2601
2.96877
2655
2.9686
2558
2.96844
2553
2.96828
2538
2.96811
2523
2.96795
2512
2.96779
2484
2.96762
2567
2.96746
2469
2.9673
2515
2.96713
2492
2.96697
2411
2.96681
2514
2.96664
2324
2.96648
2470
2.96632
2377
2.96615
2461
2.96599
2304
2.96583
2443
2.96567
2245
2.9655
2354
2.96534
2375
2.96518
2420
2.96501
2366
2.96485
2407
2.96469
2266
2.96452
2306
2.96436
2386
2.9642
2445
2.96404
2336
2.96387
2329
2.96371
2412
2.96355
2306
2.96339
2513
2.96322
2409
2.96306
2379
2.9629
2293
2.96274
2354
2.96257
2300
2.96241
2354
2.96225
2356
2.96209
2382
2.96192
2441
2.96176
2342
2.9616
2303
2.96144
2346
2.96127
2300
2.96111
2375
2.96095
2375
2.96079
2414
2.96062
2282
2.96046
2312
2.9603
2321
2.96014
2366
2.95998
2308
2.95981
2274
2.95965
2335
2.95949
2322
2.95933
2379
2.95917
2300
2.959
2376
2.95884
2363
2.95868
2260
2.95852
2318
2.95836
2436
2.95819
2362
2.95803
2407
2.95787
2311
2.95771
2321
2.95755
2283
2.95739
2454
2.95722
2405
2.95706
2309
2.9569
2292
2.95674
2330
2.95658
2286
2.95642
2348
2.95626
2415
2.95609
2306
2.95593
2294
2.95577
2397
2.95561
2367
2.95545
2417
2.95529
2261
2.95513
2303
2.95496
2401
2.9548
2404
2.95464
2275
2.95448
2321
2.95432
2254
2.95416
2359
2.954
2371
2.95384
2325
2.95367
02-Pd
Pd-AlOx
2015
12
2
17
26
18
0
13
Casa Info Follows
0
0
0
0
File = F:\Anna-Lenovo\2015\XPS-analysis\Pd-AlOx\02-12-15\02-12-15-AK-60-asis-01-bis.xml
Group = Pd-AlOx
First of group = 0
Analyzer lens = MediumArea
Analyzer slit = 5:7x20\2:open
Scan mode = FixedAnalyzerTransmission
Kinetic energy start = 897.6
Kinetic energy base = 0
XPS
1
0
0
0
Mg
1253.6
0
0
0
0
0
FAT
20
1
4.61
0
0
0
0
0
02-Pd

-1
kinetic energy
eV
897.6
0.1
2
counts
d
Transmission
d
pulse counting
0.5
1
0
0
0
0
0
482
2238
2762
2.95367
2.9931
2517
2.9931
2512
2.99294
2371
2.99277
2456
2.9926
2494
2.99243
2501
2.99227
2431
2.9921
2355
2.99193
2447
2.99176
2544
2.9916
2511
2.99143
2497
2.99126
2517
2.99109
2459
2.99093
2360
2.99076
2391
2.99059
2452
2.99043
2417
2.99026
2553
2.99009
2497
2.98992
2488
2.98976
2458
2.98959
2470
2.98942
2492
2.98926
2447
2.98909
2468
2.98892
2507
2.98876
2354
2.98859
2450
2.98842
2466
2.98825
2404
2.98809
2472
2.98792
2478
2.98775
2509
2.98759
2367
2.98742
2375
2.98725
2483
2.98709
2525
2.98692
2381
2.98676
2516
2.98659
2466
2.98642
2459
2.98626
2408
2.98609
2520
2.98592
2508
2.98576
2477
2.98559
2541
2.98542
2407
2.98526
2517
2.98509
2462
2.98493
2484
2.98476
2471
2.98459
2507
2.98443
2455
2.98426
2454
2.98409
2424
2.98393
2458
2.98376
2465
2.9836
2484
2.98343
2472
2.98326
2457
2.9831
2488
2.98293
2559
2.98277
2442
2.9826
2466
2.98243
2545
2.98227
2491
2.9821
2542
2.98194
2629
2.98177
2538
2.98161
2444
2.98144
2560
2.98127
2548
2.98111
2522
2.98094
2516
2.98078
2604
2.98061
2639
2.98045
2630
2.98028
2551
2.98012
2592
2.97995
2605
2.97979
2577
2.97962
2569
2.97945
2691
2.97929
2607
2.97912
2658
2.97896
2547
2.97879
2588
2.97863
2590
2.97846
2567
2.9783
2722
2.97813
2552
2.97797
2678
2.9778
2512
2.97764
2546
2.97747
2612
2.97731
2550
2.97714
2586
2.97698
2528
2.97681
2532
2.97665
2461
2.97648
2414
2.97632
2556
2.97615
2482
2.97599
2483
2.97582
2471
2.97566
2458
2.9755
2549
2.97533
2458
2.97517
2448
2.975
2423
2.97484
2548
2.97467
2425
2.97451
2434
2.97434
2545
2.97418
2472
2.97401
2440
2.97385
2583
2.97369
2511
2.97352
2501
2.97336
2505
2.97319
2621
2.97303
2648
2.97286
2547
2.9727
2524
2.97254
2544
2.97237
2471
2.97221
2530
2.97204
2594
2.97188
2593
2.97172
2621
2.97155
2598
2.97139
2599
2.97122
2595
2.97106
2530
2.9709
2762
2.97073
2716
2.97057
2665
2.9704
2561
2.97024
2702
2.97008
2647
2.96991
2628
2.96975
2574
2.96959
2646
2.96942
2500
2.96926
2524
2.96909
2627
2.96893
2747
2.96877
2592
2.9686
2588
2.96844
2471
2.96828
2586
2.96811
2462
2.96795
2517
2.96779
2421
2.96762
2579
2.96746
2491
2.9673
2451
2.96713
2446
2.96697
2466
2.96681
2367
2.96664
2442
2.96648
2382
2.96632
2417
2.96615
2449
2.96599
2322
2.96583
2452
2.96567
2389
2.9655
2398
2.96534
2423
2.96518
2438
2.96501
2238
2.96485
2368
2.96469
2366
2.96452
2381
2.96436
2368
2.9642
2314
2.96404
2329
2.96387
2411
2.96371
2371
2.96355
2250
2.96339
2362
2.96322
2315
2.96306
2289
2.9629
2348
2.96274
2347
2.96257
2336
2.96241
2352
2.96225
2297
2.96209
2308
2.96192
2361
2.96176
2433
2.9616
2278
2.96144
2319
2.96127
2266
2.96111
2368
2.96095
2333
2.96079
2387
2.96062
2339
2.96046
2309
2.9603
2282
2.96014
2276
2.95998
2317
2.95981
2257
2.95965
2390
2.95949
2379
2.95933
2376
2.95917
2263
2.959
2342
2.95884
2346
2.95868
2335
2.95852
2327
2.95836
2258
2.95819
2303
2.95803
2295
2.95787
2348
2.95771
2262
2.95755
2363
2.95739
2243
2.95722
2371
2.95706
2430
2.9569
2406
2.95674
2276
2.95658
2281
2.95642
2327
2.95626
2373
2.95609
2346
2.95593
2352
2.95577
2361
2.95561
2334
2.95545
2285
2.95529
2367
2.95513
2334
2.95496
2377
2.9548
2330
2.95464
2319
2.95448
2426
2.95432
2301
2.95416
2322
2.954
2313
2.95384
2269
2.95367
02-Pd
Pd-AlOx
2015
12
2
17
28
39
0
13
Casa Info Follows
0
0
0
0
File = F:\Anna-Lenovo\2015\XPS-analysis\Pd-AlOx\02-12-15\02-12-15-AK-60-asis-01-bis.xml
Group = Pd-AlOx
First of group = 0
Analyzer lens = MediumArea
Analyzer slit = 5:7x20\2:open
Scan mode = FixedAnalyzerTransmission
Kinetic energy start = 897.6
Kinetic energy base = 0
XPS
1
0
0
0
Mg
1253.6
0
0
0
0
0
FAT
20
1
4.61
0
0
0
0
0
02-Pd

-1
kinetic energy
eV
897.6
0.1
2
counts
d
Transmission
d
pulse counting
0.5
1
0
0
0
0
0
482
2217
2723
2.95367
2.9931
2448
2.9931
2448
2.99294
2523
2.99277
2393
2.9926
2492
2.99243
2497
2.99227
2463
2.9921
2513
2.99193
2459
2.99176
2450
2.9916
2445
2.99143
2425
2.99126
2400
2.99109
2524
2.99093
2490
2.99076
2459
2.99059
2441
2.99043
2500
2.99026
2477
2.99009
2415
2.98992
2399
2.98976
2407
2.98959
2436
2.98942
2481
2.98926
2505
2.98909
2385
2.98892
2468
2.98876
2441
2.98859
2492
2.98842
2544
2.98825
2377
2.98809
2383
2.98792
2495
2.98775
2499
2.98759
2436
2.98742
2460
2.98725
2402
2.98709
2574
2.98692
2439
2.98676
2508
2.98659
2430
2.98642
2547
2.98626
2400
2.98609
2482
2.98592
2471
2.98576
2415
2.98559
2406
2.98542
2511
2.98526
2473
2.98509
2443
2.98493
2519
2.98476
2472
2.98459
2474
2.98443
2587
2.98426
2547
2.98409
2558
2.98393
2464
2.98376
2459
2.9836
2460
2.98343
2435
2.98326
2502
2.9831
2513
2.98293
2617
2.98277
2495
2.9826
2458
2.98243
2554
2.98227
2604
2.9821
2501
2.98194
2507
2.98177
2563
2.98161
2460
2.98144
2516
2.98127
2583
2.98111
2555
2.98094
2548
2.98078
2615
2.98061
2556
2.98045
2607
2.98028
2583
2.98012
2544
2.97995
2601
2.97979
2612
2.97962
2598
2.97945
2692
2.97929
2609
2.97912
2522
2.97896
2643
2.97879
2553
2.97863
2625
2.97846
2558
2.9783
2625
2.97813
2535
2.97797
2635
2.9778
2578
2.97764
2575
2.97747
2614
2.97731
2607
2.97714
2557
2.97698
2552
2.97681
2471
2.97665
2586
2.97648
2465
2.97632
2391
2.97615
2434
2.97599
2591
2.97582
2537
2.97566
2439
2.9755
2491
2.97533
2394
2.97517
2445
2.975
2480
2.97484
2448
2.97467
2458
2.97451
2502
2.97434
2464
2.97418
2434
2.97401
2483
2.97385
2587
2.97369
2481
2.97352
2558
2.97336
2537
2.97319
2432
2.97303
2545
2.97286
2558
2.9727
2534
2.97254
2494
2.97237
2559
2.97221
2632
2.97204
2533
2.97188
2620
2.97172
2647
2.97155
2583
2.97139
2592
2.97122
2591
2.97106
2665
2.9709
2658
2.97073
2634
2.97057
2687
2.9704
2628
2.97024
2615
2.97008
2580
2.96991
2723
2.96975
2696
2.96959
2634
2.96942
2526
2.96926
2635
2.96909
2556
2.96893
2543
2.96877
2568
2.9686
2633
2.96844
2581
2.96828
2503
2.96811
2512
2.96795
2539
2.96779
2457
2.96762
2475
2.96746
2425
2.9673
2483
2.96713
2319
2.96697
2440
2.96681
2433
2.96664
2446
2.96648
2311
2.96632
2530
2.96615
2401
2.96599
2409
2.96583
2437
2.96567
2398
2.9655
2440
2.96534
2232
2.96518
2389
2.96501
2386
2.96485
2273
2.96469
2423
2.96452
2346
2.96436
2306
2.9642
2371
2.96404
2275
2.96387
2385
2.96371
2329
2.96355
2368
2.96339
2266
2.96322
2354
2.96306
2385
2.9629
2301
2.96274
2377
2.96257
2397
2.96241
2258
2.96225
2374
2.96209
2386
2.96192
2385
2.96176
2371
2.9616
2317
2.96144
2346
2.96127
2345
2.96111
2316
2.96095
2339
2.96079
2278
2.96062
2303
2.96046
2351
2.9603
2376
2.96014
2238
2.95998
2239
2.95981
2357
2.95965
2330
2.95949
2421
2.95933
2316
2.95917
2418
2.959
2217
2.95884
2316
2.95868
2345
2.95852
2379
2.95836
2335
2.95819
2367
2.95803
2288
2.95787
2449
2.95771
2349
2.95755
2372
2.95739
2365
2.95722
2404
2.95706
2372
2.9569
2332
2.95674
2355
2.95658
2336
2.95642
2336
2.95626
2341
2.95609
2333
2.95593
2329
2.95577
2368
2.95561
2316
2.95545
2332
2.95529
2366
2.95513
2323
2.95496
2387
2.9548
2303
2.95464
2281
2.95448
2350
2.95432
2331
2.95416
2318
2.954
2246
2.95384
2265
2.95367
02-Pd
Pd-AlOx
2015
12
2
17
30
59
0
13
Casa Info Follows
0
0
0
0
File = F:\Anna-Lenovo\2015\XPS-analysis\Pd-AlOx\02-12-15\02-12-15-AK-60-asis-01-bis.xml
Group = Pd-AlOx
First of group = 0
Analyzer lens = MediumArea
Analyzer slit = 5:7x20\2:open
Scan mode = FixedAnalyzerTransmission
Kinetic energy start = 897.6
Kinetic energy base = 0
XPS
1
0
0
0
Mg
1253.6
0
0
0
0
0
FAT
20
1
4.61
0
0
0
0
0
02-Pd

-1
kinetic energy
eV
897.6
0.1
2
counts
d
Transmission
d
pulse counting
0.5
1
0
0
0
0
0
482
2244
2712
2.95367
2.9931
2524
2.9931
2507
2.99294
2400
2.99277
2578
2.9926
2529
2.99243
2538
2.99227
2555
2.9921
2461
2.99193
2518
2.99176
2446
2.9916
2440
2.99143
2424
2.99126
2507
2.99109
2425
2.99093
2453
2.99076
2431
2.99059
2500
2.99043
2406
2.99026
2467
2.99009
2398
2.98992
2434
2.98976
2454
2.98959
2493
2.98942
2445
2.98926
2546
2.98909
2448
2.98892
2381
2.98876
2413
2.98859
2438
2.98842
2478
2.98825
2432
2.98809
2417
2.98792
2393
2.98775
2495
2.98759
2401
2.98742
2522
2.98725
2490
2.98709
2399
2.98692
2455
2.98676
2447
2.98659
2503
2.98642
2469
2.98626
2506
2.98609
2521
2.98592
2456
2.98576
2506
2.98559
2434
2.98542
2474
2.98526
2458
2.98509
2575
2.98493
2503
2.98476
2388
2.98459
2496
2.98443
2372
2.98426
2549
2.98409
2497
2.98393
2562
2.98376
2396
2.9836
2505
2.98343
2405
2.98326
2515
2.9831
2463
2.98293
2461
2.98277
2487
2.9826
2519
2.98243
2422
2.98227
2483
2.9821
2588
2.98194
2561
2.98177
2484
2.98161
2569
2.98144
2590
2.98127
2453
2.98111
2589
2.98094
2625
2.98078
2496
2.98061
2496
2.98045
2576
2.98028
2597
2.98012
2629
2.97995
2583
2.97979
2621
2.97962
2560
2.97945
2556
2.97929
2609
2.97912
2576
2.97896
2671
2.97879
2608
2.97863
2633
2.97846
2636
2.9783
2588
2.97813
2595
2.97797
2630
2.9778
2532
2.97764
2518
2.97747
2575
2.97731
2606
2.97714
2555
2.97698
2523
2.97681
2545
2.97665
2564
2.97648
2480
2.97632
2514
2.97615
2480
2.97599
2377
2.97582
2408
2.97566
2493
2.9755
2474
2.97533
2454
2.97517
2539
2.975
2470
2.97484
2522
2.97467
2505
2.97451
2341
2.97434
2556
2.97418
2481
2.97401
2482
2.97385
2508
2.97369
2471
2.97352
2555
2.97336
2537
2.97319
2466
2.97303
2525
2.97286
2482
2.9727
2582
2.97254
2558
2.97237
2439
2.97221
2613
2.97204
2561
2.97188
2611
2.97172
2597
2.97155
2691
2.97139
2547
2.97122
2676
2.97106
2689
2.9709
2615
2.97073
2549
2.97057
2668
2.9704
2659
2.97024
2638
2.97008
2584
2.96991
2710
2.96975
2602
2.96959
2647
2.96942
2668
2.96926
2641
2.96909
2521
2.96893
2627
2.96877
2600
2.9686
2712
2.96844
2547
2.96828
2635
2.96811
2615
2.96795
2521
2.96779
2444
2.96762
2528
2.96746
2433
2.9673
2495
2.96713
2430
2.96697
2406
2.96681
2380
2.96664
2433
